# Binned (from 5-pixel column-level) transit depths for mornings and evenings.
# These depths are at a resolution of 100. 
# 
#
# Original fits preformed with catwoman (https://catwoman.readthedocs.io/) to the Data Synthesis NIRSpec/PRISM dataset.
#
# Author: Nestor Espinoza (nespinoza@stsci.edu)
#
# Column 0:  Wavelength (um)
# Column 1:  Evening depths (ppm)
# Column 2:  Error on evening depths (ppm)
# Column 3:  Morning depths (ppm)
# Column 4:  Error on morning depths (ppm)
# Column 5:  Covariance between Morning and Evening depths (ppm^2)
# Column 6:  Difference between Evening and Morning depths (ppm)
# Column 7:  Error on the Difference (ppm)
#
0.5257 10983.8161 829.0526 10192.5542 1006.4071 -809258.4474 786.1375 1810.7119
0.5440 10720.6162 510.6434 10799.8881 651.7565 -324921.2378 -89.8954 1148.7203
0.5644 11049.6063 390.8386 10433.6013 510.7355 -195962.5052 610.4181 894.4311
0.5871 11373.7423 325.0689 10105.7895 435.2628 -139365.8919 1255.1638 755.6953
0.6126 10906.0665 290.2951 10441.8318 390.2964 -111691.2823 451.2802 668.8335
0.6416 10708.6414 262.0251 10508.5285 354.9007 -91744.2566 189.6415 614.0592
0.6746 10898.3464 232.3993 10191.8882 314.9080 -72235.9826 703.6787 540.7552
0.7127 10493.4835 208.3410 10763.5790 283.1815 -58145.8963 -276.2514 485.7330
0.7568 10976.2515 294.5457 9953.7313 390.2248 -112896.9283 1009.8033 676.9923
0.8083 10713.7183 268.3968 10258.1020 356.0718 -93806.9039 451.5024 621.3872
0.8687 10573.5415 247.3369 10293.4932 326.6559 -79092.3195 272.6380 567.0775
0.9394 10910.9726 227.7097 10187.4581 303.0594 -67673.2015 714.8884 527.2471
1.0216 10466.6516 211.9614 10497.5635 282.5633 -58716.5165 -41.2563 487.2178
1.1155 10728.4358 205.1468 10517.6732 271.6248 -54537.0565 199.5595 473.0070
1.2201 10672.0179 181.5874 10517.6705 242.3830 -43031.5226 144.0743 419.9176
1.3329 10789.1874 178.6331 10779.3081 235.8014 -41102.2914 -0.2435 409.0146
1.4509 11034.1415 189.2192 10441.7980 253.3151 -46956.6091 582.8069 437.2042
1.5709 10273.9959 180.0322 10842.7401 235.5941 -41320.3976 -575.1191 407.6093
1.6905 10576.0137 188.7827 10345.1647 244.6175 -44928.0968 226.9970 429.6243
1.8080 10492.9867 160.0713 10992.1532 208.2994 -32358.9626 -505.4588 361.5724
1.9226 10963.2329 129.2791 10600.1002 172.6772 -21812.7981 359.5648 299.1372
2.0337 10706.0802 131.6791 10401.3501 175.5970 -22573.7772 300.8917 304.7458
2.1411 10572.8216 131.7372 10533.1041 173.9152 -22290.1211 37.9827 300.7816
2.2450 10526.3208 138.0348 10446.2687 181.1526 -24342.0890 75.3891 315.3034
2.3454 10847.4157 148.8908 10353.9917 195.0810 -28272.9863 485.3960 342.5267
2.4426 10921.9885 156.7133 10458.1028 205.7073 -31353.3151 455.7149 357.7781
2.5366 10964.5468 159.5538 10750.3951 206.6266 -31983.4682 207.6070 360.8672
2.6278 11142.0683 165.6822 10732.0696 214.7065 -34485.5272 405.0427 373.4669
2.7163 11170.5630 172.5595 10790.9190 224.1572 -37506.1802 372.8146 394.0848
2.8022 11232.2385 188.2476 10893.1426 242.1580 -44185.8523 333.7103 423.1105
2.8858 10796.5691 182.5465 11283.3560 232.1354 -40821.6673 -488.9641 409.8048
2.9672 10893.8307 196.8022 10906.1011 249.0985 -47293.1053 -17.7990 436.8220
3.0466 11012.0084 212.9300 10698.3543 272.3303 -56149.1706 305.2001 477.5436
3.1240 11057.0122 213.5925 10474.4351 269.5523 -55541.6823 572.5024 474.3365
3.1996 10638.0127 213.4020 10844.0436 269.0380 -55430.6504 -215.8355 473.8377
3.2735 10681.3940 225.9938 10607.6226 281.2835 -61255.6407 65.8030 496.1583
3.3458 10954.7551 242.2045 10324.0330 306.6202 -71853.1785 622.0729 539.9508
3.4166 10402.7544 220.6510 11030.9378 273.8305 -57906.6180 -633.6927 488.1794
3.5030 10491.1133 201.2440 10941.6169 250.3173 -48512.3261 -458.2017 443.7391
3.6040 11012.0235 217.2944 10226.6218 271.2936 -56780.9812 776.8877 479.3019
3.7023 10547.7984 224.8929 10631.9528 278.7032 -60198.3096 -92.2175 493.5135
3.7979 10580.6453 239.2798 10520.1971 296.2674 -68242.0013 47.5523 527.2103
3.8911 10913.2530 259.5061 10051.5089 323.9014 -80967.9876 852.8088 576.7027
3.9821 10662.9030 259.5969 10675.7554 316.5286 -78780.8991 -17.9597 568.0371
4.0709 11226.3538 278.3432 9991.3695 341.8982 -91453.6969 1224.8805 607.9845
4.1578 10591.6498 267.8299 10776.5215 326.6588 -83584.7478 -189.5833 585.0434
4.2428 11510.1564 290.2324 10551.6869 357.5392 -99386.2712 945.5187 633.3500
4.3260 11546.7066 298.5610 11158.1939 365.0051 -104044.9235 377.9586 653.1665
4.4075 12362.7178 339.9078 10137.2183 420.8060 -137374.6941 2213.8136 747.6938
4.4875 11760.4380 361.0904 10071.2666 445.2921 -154377.8555 1688.7651 796.1848
4.5660 11008.9458 351.2039 10679.8507 427.1912 -143194.6252 315.3419 774.1223
4.6430 11012.7768 353.5432 10546.6994 426.6297 -143462.0298 454.1992 761.1488
4.7187 11324.6791 393.2712 10071.1561 477.2415 -179530.6782 1236.8658 855.5554
4.7931 11039.9105 387.1904 10618.2939 467.3006 -172619.4875 412.1711 841.1807
4.8783 10879.4035 356.1602 10504.0366 429.7559 -145914.3394 372.4707 769.3176
4.9737 11443.9969 369.5309 9888.6344 442.3719 -155643.4792 1541.1401 803.7806
5.0672 10579.3579 357.4617 10878.9886 421.7695 -142211.8590 -314.9429 766.3426
5.1588 11213.9684 411.3884 9978.2061 492.0504 -192287.6917 1224.5054 885.4727
5.2486 10956.5633 399.1847 10562.1679 472.9394 -178396.9085 383.3307 848.6809
